File: aif/DMOF-1.aif
data_2fac222ff408c53d9c6360f44da222f4
_audit_aif_version 1.0
_audit_creation_method pyGAPS
_exptl_adsorptive 'nitrogen'
_exptl_temperature 77.0
_sample_material_id 'DMOF-1'
_units_temperature 'K'
_units_pressure relative
_units_loading 'cm3/g'
_pygaps_pressure_mode 'relative'
_pygaps_pressure_unit 'None'
_pygaps_material_basis 'mass'
_pygaps_material_unit 'g'
_pygaps_loading_basis 'volume_gas'
_pygaps_loading_unit 'cm3'
_pygaps_temperature_unit 'K'

loop_
_adsorp_pressure
_adsorp_amount
4.75e-05 0.291525
9.69e-05 0.576831
0.00012318 0.620049
0.00012858 0.658136
0.00016453 0.952826
0.0002173 5.9964
0.00025721 15.9663
0.00027912 25.9374
0.00030074 35.9062
0.00032297 45.8747
0.00035141 56.1855
0.00036869 66.1524
0.00038369 76.1194
0.00039372 86.0866
0.00041067 96.0527
0.0004314 106.022
0.00043352 115.991
0.0004341 125.956
0.00044681 135.92
0.00044822 155.853
0.00046013 212.5
0.0004699 242.8
0.00047987 263.6
0.00049592 293.589
0.00050584 312.603
0.00052276 322.559
0.00056128 332.508
0.00061237 351.476
0.0007629 361.397
0.00104649 371.29
0.00133878 376.7
0.00169084 381.172
0.00220066 385.8
0.00283096 390.919
0.00334862 396.201
0.00395308 406.052
0.00434059 415.523
0.00536489 425.145
0.00659992 430.69
0.00840901 435.144
0.01064712 438.35
0.01347842 440.784
0.01740082 442.841
0.02203745 444.346
0.0288725 445.708
0.0379485 446.804
0.04322117 447.246
0.05633047 448.001
0.07570483 448.672
0.09674745 449.124
0.121067 449.47
0.148104 449.732
0.182104 449.965
0.230198 450.201
0.294028 450.436
0.376153 450.67
0.47515 450.957
0.539635 451.201
0.602891 451.544
0.6441129 451.874
0.683964 452.334
0.723677 453.015
0.7624415 454.126
0.7894 455.385
0.815017 457.081
0.840146 459.277
0.865212 462.03
0.930034 467.33
0.95885 467.786
0.983378 468.348