File: aif/EXP_ZIF-8powder.aif
data_3d512d2ee487fa9b53770b79de0f526e
_audit_aif_version 1.0
_audit_creation_method pyGAPS
_exptl_adsorptive 'nitrogen'
_exptl_temperature 77.0
_sample_material_id 'EXP_ZIF-8powder'
_units_temperature 'K'
_units_pressure relative
_units_loading 'cm3/g'
_pygaps_pressure_mode 'relative'
_pygaps_pressure_unit 'None'
_pygaps_material_basis 'mass'
_pygaps_material_unit 'g'
_pygaps_loading_basis 'volume_gas'
_pygaps_loading_unit 'cm3'
_pygaps_temperature_unit 'K'

loop_
_adsorp_pressure
_adsorp_amount
4.2e-05 20.2827
9.969e-05 40.673
0.00014812 60.8768
0.00018851 81.2511
0.00022428 101.619
0.00025984 122.03
0.00029995 142.399
0.00034906 162.786
0.00041793 183.077
0.00052108 203.347
0.00068477 223.567
0.00094986 243.586
0.00142272 263.188
0.00193056 275.084
0.00293669 288.422
0.0038711 295.855
0.00494507 301.799
0.00573077 305.33
0.00669891 312.628
0.00805449 323.337
0.00889211 328.072
0.00978126 332.321
0.02074716 356.461
0.02911093 364.384
0.03816369 400.802
0.04836001 414.136
0.0637743 420.063
0.06977686 421.703
0.08004303 424.026
0.09008362 425.975
0.10043 427.725
0.145027 433.484
0.20271 438.997
0.25486 443.154
0.305344 446.727
0.354387 449.933
0.3992699 452.62
0.449413 455.327
0.499422 457.832
0.549131 460.224
0.599553 462.618
0.648966 465.068
0.699056 467.854
0.748964 471.047
0.7992439 474.815
0.809236 475.769
0.819317 476.77
0.8292668 477.786
0.839404 478.859
0.850175 480.095
0.859576 481.218
0.86908 482.572
0.879065 484.124
0.889537 485.88
0.899628 487.736
0.909863 489.885
0.919855 492.417
0.929147 495.204
0.939056 498.743
0.948885 503.23
0.959088 509.388
0.969052 517.72
0.978076 529.029
0.986984 548.985
0.994456 585.441