File: aif/MCM-41.aif
data_ee130b5d06e85bf3cf5fbf1686deec57
_audit_aif_version 1.0
_audit_creation_method pyGAPS
_exptl_adsorptive 'nitrogen'
_exptl_temperature 77.0
_sample_material_id 'MCM-41'
_units_temperature 'K'
_units_pressure relative
_units_loading 'cm3/g'
_pygaps_pressure_mode 'relative'
_pygaps_pressure_unit 'None'
_pygaps_material_basis 'mass'
_pygaps_material_unit 'g'
_pygaps_loading_basis 'volume_gas'
_pygaps_loading_unit 'cm3'
_pygaps_temperature_unit 'K'

loop_
_adsorp_pressure
_adsorp_amount
0.00979 141.85
0.013 147.3
0.01699222 153.9
0.02199368 161.7
0.02998674 172.9
0.03965804 183.788
0.05602261 197.1
0.07129544 206.89
0.1049275 225.112
0.1296991 236.616
0.159961 249.475
0.191746 262.327
0.222604 274.802
0.252936 287.723
0.284027 303.513
0.3051353 320.3
0.316013 333.943
0.3338712 392.7
0.343961 420.773
0.372991 458.9
0.427552 493.679
0.447576 495.091
0.476895 496.975
0.499736 498.291
0.529858 499.888
0.560582 501.384
0.591213 502.776
0.6218789 504.132
0.652785 505.412
0.683268 506.643
0.713948 507.858
0.744564 509.086
0.775127 510.351
0.806788 511.668
0.83655 512.973
0.867019 514.441
0.897226 516.307
0.937869 520.878