File: aif/Mg-MOF-74.aif
data_03b34dd8019f60c26042fc12a0c3a8f7
_audit_aif_version 1.0
_audit_creation_method pyGAPS
_exptl_adsorptive 'nitrogen'
_exptl_temperature 77.0
_sample_material_id 'Mg-MOF-74'
_units_temperature 'K'
_units_pressure relative
_units_loading 'cm3/g'
_pygaps_pressure_mode 'relative'
_pygaps_pressure_unit 'None'
_pygaps_material_basis 'mass'
_pygaps_material_unit 'g'
_pygaps_loading_basis 'volume_gas'
_pygaps_loading_unit 'cm3'
_pygaps_temperature_unit 'K'

loop_
_adsorp_pressure
_adsorp_amount
3.41e-05 2.67973
5.85e-05 3.33732
8.29e-05 9.38407
0.00010698 29.275
0.0001256 49.1668
0.00014407 69.0553
0.00016378 88.934
0.00018735 108.805
0.00020874 117.643
0.00026291 123.382
0.00032538 143.255
0.0003933 163.055
0.00040154 166.149
0.00046013 177.7
0.00054142 185.866
0.00065031 188.426
0.00085822 194.449
0.00113001 201.05
0.00135207 204.545
0.00162969 207.859
0.00204844 211.851
0.00267263 216.356
0.00340465 219.856
0.00423609 222.369
0.00522907 224.474
0.00680455 227.019
0.00867064 229.092
0.01060253 230.66
0.01356059 232.492
0.0175136 234.253
0.02198175 235.694
0.02779759 237.144
0.03555833 238.641
0.0450877 240.064
0.05708432 241.482
0.07385285 242.98
0.09350452 244.418
0.117918 245.849
0.148441 247.347
0.187453 248.942
0.236738 250.673
0.301022 252.576
0.376151 254.571
0.475698 256.971
0.539979 258.31
0.603025 259.576
0.644358 260.291
0.684219 260.927
0.724397 261.538
0.764352 262.216
0.790607 262.679
0.815986 263.154
0.841262 263.725
0.866822 264.36
0.914684 266.0
0.942892 267.34
0.967733 269.159