File: aif/MOF-5.aif
data_327dd9c852716c723c32f8f6a19edffe
_audit_aif_version 1.0
_audit_creation_method pyGAPS
_exptl_adsorptive 'nitrogen'
_exptl_temperature 77.0
_sample_material_id 'MOF-5'
_units_temperature 'K'
_units_pressure relative
_units_loading 'cm3/g'
_pygaps_pressure_mode 'relative'
_pygaps_pressure_unit 'None'
_pygaps_material_basis 'mass'
_pygaps_material_unit 'g'
_pygaps_loading_basis 'volume_gas'
_pygaps_loading_unit 'cm3'
_pygaps_temperature_unit 'K'

loop_
_adsorp_pressure
_adsorp_amount
4.88e-05 1.036
0.00010304 1.90804
0.00015226 2.15571
0.00019299 2.70102
0.00022769 3.15102
0.00026208 3.80533
0.00033932 17.8542
0.00041033 37.6792
0.00043606 44.4798
0.0005309 64.2932
0.00068157 83.5137
0.00082556 91.8364
0.00101803 98.6779
0.00138748 112.605
0.00175426 124.388
0.00208204 134.337
0.00263458 154.113
0.003096 173.926
0.00342156 190.692
0.00373714 210.479
0.00399025 230.263
0.00420309 250.025
0.00438444 269.787
0.00455051 289.523
0.00470143 309.269
0.00483122 329.018
0.00495927 348.724
0.00508315 368.449
0.00519874 388.165
0.00532475 407.835
0.00545293 427.54
0.0055732 447.224
0.00569994 466.945
0.00587315 486.604
0.00605537 506.438
0.00627763 526.084
0.00653826 545.771
0.00687004 565.404
0.00727821 585.064
0.00784009 604.602
0.00853454 623.844
0.00953786 643.198
0.01071683 659.897
0.01271691 679.317
0.01335684 683.812
0.01678357 703.156
0.01719099 704.637
0.02166412 719.761
0.02955779 736.58
0.03749683 747.287
0.04381596 753.546
0.05635481 763.026
0.07500077 772.765
0.09462289 780.029
0.12134 787.346
0.148705 793.224
0.186664 800
0.233461 807.523
0.292644 816.234
0.376873 825.795
0.477272 831.283
0.557468 832.901
0.622325 833.317
0.663689 833.227
0.703953 832.993
0.744085 832.691
0.784235 832.312
0.81037 831.949
0.835704 831.671
0.861221 831.31
0.886535 830.969
0.936029 830.322
0.962544 830.02
0.987972 829.895