File: aif/NU-1000.aif
data_cba279aa200bb1b90891d7e1fc996e4c
_audit_aif_version 1.0
_audit_creation_method pyGAPS
_exptl_adsorptive 'nitrogen'
_exptl_temperature 77.0
_sample_material_id 'NU-1000'
_units_temperature 'K'
_units_pressure relative
_units_loading 'cm3/g'
_pygaps_pressure_mode 'relative'
_pygaps_pressure_unit 'None'
_pygaps_material_basis 'mass'
_pygaps_material_unit 'g'
_pygaps_loading_basis 'volume_gas'
_pygaps_loading_unit 'cm3'
_pygaps_temperature_unit 'K'

loop_
_adsorp_pressure
_adsorp_amount
0.003831 245.411
0.00488786 260.7
0.005746 280.193
0.00648022 310.4
0.00663763 318.6
0.00720486 344.6
0.007662 355.556
0.00920508 364.1
0.011492 371.014
0.01339331 377.9
0.01853675 394.8
0.02107 401.932
0.028731 419.324
0.049801 448.309
0.06680349 463.0
0.080447 473.43
0.099601 488.889
0.109178 494.686
0.120671 504.348
0.133721 515.5
0.147487 527.536
0.160894 539.13
0.168556 546.86
0.178132 556.522
0.18771 566.184
0.197287 583.575
0.199488 600.2
0.201118 614.493
0.204948 643.478
0.206864 660.87
0.208462 678.2
0.210695 693.72
0.224103 699.517
0.268157 707.246
0.298803 709.179
0.33328 713.043
0.358181 716.908
0.402235 720.773
0.45012 724.638
0.503751 726.57
0.530567 728.502
0.555468 730.435
0.603353 730.435
0.655069 734.3
0.704869 736.232
0.735516 738.164
0.760417 738.164
0.806386 742.029
0.856187 742.029
0.904072 745.894
0.940464 747.826
0.999842 757.488