File: aif/TPB-DMTP-COF.aif
data_54e9ab270be53e92ff20c6cb654f1421
_audit_aif_version 1.0
_audit_creation_method pyGAPS
_exptl_adsorptive 'nitrogen'
_exptl_temperature 77.0
_sample_material_id 'TPB-DMTP-COF'
_units_temperature 'K'
_units_pressure relative
_units_loading 'cm3/g'
_pygaps_pressure_mode 'relative'
_pygaps_pressure_unit 'None'
_pygaps_material_basis 'mass'
_pygaps_material_unit 'g'
_pygaps_loading_basis 'volume_gas'
_pygaps_loading_unit 'cm3'
_pygaps_temperature_unit 'K'

loop_
_adsorp_pressure
_adsorp_amount
0.00166587 196.982
0.00194442 204.596
0.00286896 225.785
0.00396559 245.531
0.00486786 259.249
0.0057265 270.594
0.00679092 282.958
0.00789483 294.274
0.00890037 303.402
0.00988706 311.533
0.01199818 325.7
0.01399577 337.7
0.01919738 364.28
0.023006 380.5
0.02884945 402.005
0.03824153 432.055
0.0500177 465.046
0.05705916 483.043
0.069002 511.318
0.07905353 533.223
0.08892752 553.511
0.09890298 572.689
0.1178429 606.25
0.137931 638.703
0.158643 670.077
0.178416 700.003
0.197221 730.806
0.2143579 773.984
0.224922 892.8
0.235341 999.326
0.268275 1042.28
0.295847 1060.15
0.3261189 1078.69
0.342338 1087.51
0.3600293 1096.14
0.380357 1105.53
0.399925 1114.12
0.448298 1134.84
0.50004 1156.09
0.549395 1176.26
0.599734 1197.33
0.64933 1219.07
0.699352 1242.6
0.749629 1269.76
0.798779 1301.44
0.847692 1344.86
0.896305 1413.55
0.946154 1564.01
0.99812 2313.94