File: aif/Zeolite-13X.aif
data_9bb8bd3435e8fd607c22236a7c2aba7a
_audit_aif_version 1.0
_audit_creation_method pyGAPS
_exptl_adsorptive 'nitrogen'
_exptl_temperature 77.0
_sample_material_id 'Zeolite-13X'
_units_temperature 'K'
_units_pressure relative
_units_loading 'cm3/g'
_pygaps_pressure_mode 'relative'
_pygaps_pressure_unit 'None'
_pygaps_material_basis 'mass'
_pygaps_material_unit 'g'
_pygaps_loading_basis 'volume_gas'
_pygaps_loading_unit 'cm3'
_pygaps_temperature_unit 'K'

loop_
_adsorp_pressure
_adsorp_amount
2e-05 2.02648
5.79e-05 2.54124
9.07e-05 3.5472
9.97e-05 5.86678
0.00012 15.08
0.00013588 25.7629
0.00014998 40.33
0.00015373 45.6781
0.0001622 64.1224
0.00016995 75.52
0.00017989 84.0243
0.00020622 88.1031
0.0002476 90.4145
0.00027992 98.4
0.00030673 110.313
0.00032006 118.2
0.00033194 130.17
0.00034018 149.91
0.00041014 162.7
0.00053783 169.283
0.0009001 175.9
0.00168689 181.742
0.00209589 183.171
0.00262318 184.567
0.00329974 185.915
0.00418592 187.208
0.00525523 188.356
0.00665711 189.491
0.00849101 190.615
0.01080895 191.675
0.01367232 192.662
0.01737915 193.63
0.02212002 194.546
0.02797221 195.401
0.03550244 196.262
0.04518963 197.087
0.05710476 197.855
0.07350381 198.662
0.09289727 199.382
0.117365 200.068
0.148033 200.718
0.186992 201.342
0.23627 201.92
0.298619 202.453
0.376376 202.916
0.475677 203.309
0.5396658 203.521
0.603275 203.693
0.644041 203.808
0.6842693 203.919
0.724374 204.028
0.764422 204.153
0.790647 204.246
0.815998 204.364
0.841458 204.476
0.8666316 204.617
0.915619 205.033
0.942539 205.51
0.967869 206.364