File: example/aif/Al_fumarate.aif
data_5f06634693e7953515f95c2bcf4457e2
_audit_aif_version 1.0
_audit_creation_method pyGAPS
_exptl_adsorptive 'nitrogen'
_exptl_temperature 77.0
_sample_material_id 'Al_fumarate'
_units_temperature 'K'
_units_pressure relative
_units_loading 'cm3/g'
_pygaps_pressure_mode 'relative'
_pygaps_pressure_unit 'None'
_pygaps_material_basis 'mass'
_pygaps_material_unit 'g'
_pygaps_loading_basis 'volume_gas'
_pygaps_loading_unit 'cm3'
_pygaps_temperature_unit 'K'

loop_
_adsorp_pressure
_adsorp_amount
6.51e-05 0.178173
9.45e-05 0.349631
0.00014003 0.599944
0.0001685 1.15515
0.00021252 3.03911
0.00025687 22.9596
0.00028595 42.8873
0.00031893 62.806
0.00032856 63.5863
0.00039718 67.5014
0.00042706 87.4391
0.00045844 107.325
0.00051106 127.186
0.00058062 145.276
0.00063734 156.142
0.0008905 175.838
0.00101914 182.528
0.00135517 190.539
0.00163204 195.273
0.00211195 200.351
0.00259901 203.99
0.00329834 208.065
0.00436884 212.166
0.00523047 214.688
0.00677779 218.058
0.00847415 220.905
0.0107617 223.99
0.01407712 227.137
0.01702541 229.349
0.02213823 232.301
0.02792096 234.889
0.03553287 237.453
0.0447292 239.848
0.05686254 242.313
0.07464045 244.988
0.09444694 247.283
0.119932 249.593
0.14986 251.76
0.188607 254.05
0.237609 256.44
0.302415 259.24
0.375745 262.296
0.474393 266.757
0.538919 270.347
0.6026204 274.671
0.644038 278.143
0.684098 282.08
0.723912 286.64
0.763564 292.059
0.790607 296.302
0.815629 300.722
0.8405768 305.775
0.865723 311.738
0.91707 330.684
0.94041 346.424
0.96198 368.415
0.97071 381.535