File: example/aif/HKUST-1.aif
data_ad8f013e50f0850204b05e2b724b9e8d
_audit_aif_version 1.0
_audit_creation_method pyGAPS
_exptl_adsorptive 'nitrogen'
_exptl_temperature 77.0
_sample_material_id 'HKUST-1'
_units_temperature 'K'
_units_pressure relative
_units_loading 'cm3/g'
_pygaps_pressure_mode 'relative'
_pygaps_pressure_unit 'None'
_pygaps_material_basis 'mass'
_pygaps_material_unit 'g'
_pygaps_loading_basis 'volume_gas'
_pygaps_loading_unit 'cm3'
_pygaps_temperature_unit 'K'

loop_
_adsorp_pressure
_adsorp_amount
4.6e-07 29.2422
8.1e-07 58.6914
1.24e-06 88.1823
1.95e-06 117.771
3.47e-06 147.021
1.98e-05 176.627
3.01e-05 188.1
3.99e-05 197.3
4.84e-05 205.734
6e-05 219.4
7.19e-05 234.899
8e-05 247.5
9.1e-05 263.906
0.00012216 292.899
0.00016995 309.4
0.00024003 320.839
0.0004699 333.9
0.00102994 346.752
0.00201034 351.561
0.00304576 354.006
0.00394851 355.426
0.00483019 356.484
0.00591267 357.525
0.00690474 358.317
0.00794568 359.036
0.00893684 359.633
0.0099502 360.2
0.01956639 363.856
0.02937333 366.721
0.03957375 369.6
0.05304876 373.587
0.05978248 375.548
0.07028586 377.661
0.08038212 379.273
0.09069335 380.715
0.100864 381.989
0.145578 386.47
0.201715 390.405
0.255898 393.273
0.306355 395.433
0.355727 396.995
0.400711 398.472
0.450996 399.931
0.500912 401.229
0.550729 402.389
0.60054 403.447
0.650424 404.438
0.699409 405.32
0.74943 406.162
0.79959 406.977
0.810604 407.276
0.82075 407.439
0.830251 407.588
0.840611 407.741
0.85009 407.871
0.86014 408.01
0.870537 408.164
0.880439 408.312
0.890352 408.441
0.900085 408.576
0.909886 408.727
0.920408 408.878
0.930174 409.027
0.940068 409.168
0.949687 409.337
0.959834 409.498
0.969298 409.673
0.979272 409.882
0.989261 410.101
0.998416 410.547