File: example/aif/MIL-101.aif
data_6d9880876fb00ba3d236f93da2ba148c
_audit_aif_version 1.0
_audit_creation_method pyGAPS
_exptl_adsorptive 'nitrogen'
_exptl_temperature 77.0
_sample_material_id 'MIL-101'
_units_temperature 'K'
_units_pressure relative
_units_loading 'cm3/g'
_pygaps_pressure_mode 'relative'
_pygaps_pressure_unit 'None'
_pygaps_material_basis 'mass'
_pygaps_material_unit 'g'
_pygaps_loading_basis 'volume_gas'
_pygaps_loading_unit 'cm3'
_pygaps_temperature_unit 'K'

loop_
_adsorp_pressure
_adsorp_amount
7.24e-05 0.08753826
0.00014359 4.44849
0.00019476 24.3099
0.00022592 43.8685
0.00026236 63.7515
0.00032093 83.6313
0.00034268 84.5319
0.00041074 98.2231
0.00049059 118.09
0.00052953 128.917
0.00064514 148.75
0.00066991 149.072
0.00082469 168.938
0.00101357 188.706
0.00101671 188.845
0.00130365 207.716
0.00169959 227.374
0.00211443 241.675
0.00259059 254.863
0.00340612 271.878
0.00414545 284.585
0.00545242 302.159
0.00672935 316.21
0.00863236 333.191
0.01089172 349.607
0.01380056 366.73
0.01740058 384.151
0.02206847 402.768
0.02782359 422.141
0.03445805 441.647
0.04178732 461.04
0.04486854 468.662
0.05300442 487.884
0.05480133 491.957
0.06506103 514.104
0.07174989 528.264
0.08178596 551.267
0.088454 568.141
0.09954232 591.886
0.114468 610.102
0.139194 629.696
0.155311 640.707
0.181102 660.531
0.192015 686.038
0.2061893 712.055
0.246716 720.213
0.302737 727.348
0.372466 733.915
0.474121 740.961
0.537798 744.47
0.6024543 747.541
0.6435793 749.357
0.684178 751.05
0.7242527 752.701
0.764418 754.373
0.790465 755.494
0.815945 756.643
0.841291 757.887
0.866639 759.278
0.913919 762.767
0.941891 766.23
0.965929 772.298