File: example/aif/MIL-100.aif
data_eee1e08c027c5e6cc1e9dfc2ba4ec435
_audit_aif_version 1.0
_audit_creation_method pyGAPS
_exptl_adsorptive 'nitrogen'
_exptl_temperature 77.0
_sample_material_id 'MIL-100'
_units_temperature 'K'
_units_pressure relative
_units_loading 'cm3/g'
_pygaps_pressure_mode 'relative'
_pygaps_pressure_unit 'None'
_pygaps_material_basis 'mass'
_pygaps_material_unit 'g'
_pygaps_loading_basis 'volume_gas'
_pygaps_loading_unit 'cm3'
_pygaps_temperature_unit 'K'

loop_
_adsorp_pressure
_adsorp_amount
0.001034 197.129
0.00110842 199.524
0.00118819 202.082
0.0012737 204.812
0.00136537 207.723
0.00146364 210.823
0.00156898 214.122
0.00168189 217.626
0.00180294 221.342
0.0019327 225.275
0.00207179 229.427
0.0022209 233.799
0.00238074 238.386
0.00255208 243.179
0.00273575 248.161
0.00293264 253.307
0.00314371 258.581
0.00336996 263.934
0.0036125 269.296
0.00387249 274.578
0.00415119 279.66
0.00444995 284.388
0.00477021 288.564
0.00511352 292.092
0.00548154 295.488
0.00587605 298.803
0.00629895 302.014
0.00675228 305.107
0.00723825 308.071
0.00775918 310.907
0.00831761 313.635
0.00891623 316.293
0.00955793 318.952
0.01024581 321.623
0.0109832 324.288
0.01177366 326.938
0.01262101 329.57
0.01352934 332.182
0.01450305 334.783
0.01554683 337.391
0.01666574 340.041
0.01786517 342.79
0.01915092 345.701
0.02052922 348.674
0.0220067 351.682
0.02359052 354.729
0.02528833 357.829
0.02710833 361.007
0.02905931 364.303
0.03115071 367.757
0.03339262 371.106
0.03579589 374.459
0.03837212 378.203
0.04113376 382.88
0.04409415 388.544
0.0472676 395.508
0.05066945 404.619
0.05431612 416.005
0.05822525 424.172
0.06241572 430.917
0.06690777 436.115
0.07172312 440.087
0.07688503 445.298
0.08241844 451.435
0.08835008 458.598
0.09470863 466.446
0.101525 472.619
0.108832 479.666
0.116664 491.159
0.12506 506.19
0.134061 523.444
0.1437094 530.634
0.154052 533.161
0.165139 536.335
0.177024 540.586
0.189765 541.081
0.203422 543.618
0.218062 543.785
0.233756 545.891
0.25058 548.854
0.268614 549.487
0.287946 551.577
0.30867 552.569
0.330884 553.507
0.354698 555.523
0.380226 556.66
0.407591 558.336
0.436925 559.624
0.46837 560.132
0.502079 562.136
0.538213 563.958
0.576949 564.525
0.618472 565.805
0.662983 566.643
0.710698 568.492
0.761847 570.978
0.816677 571.492
0.875453 572.483
0.938459 574.941