File: example/aif/UiO-66-NH2.aif
data_b5196071c4cef6c8d99159e7bb06164a
_audit_aif_version 1.0
_audit_creation_method pyGAPS
_exptl_adsorptive 'nitrogen'
_exptl_temperature 77.0
_sample_material_id 'UiO-66-NH2'
_units_temperature 'K'
_units_pressure relative
_units_loading 'cm3/g'
_pygaps_pressure_mode 'relative'
_pygaps_pressure_unit 'None'
_pygaps_material_basis 'mass'
_pygaps_material_unit 'g'
_pygaps_loading_basis 'volume_gas'
_pygaps_loading_unit 'cm3'
_pygaps_temperature_unit 'K'

loop_
_adsorp_pressure
_adsorp_amount
8.5e-07 19.5369
2.29e-06 39.2633
5.69e-06 58.8985
1.04e-05 78.5368
2.12e-05 98.1616
4.17e-05 117.773
8.81e-05 137.365
0.00019284 156.893
0.00044122 176.346
0.00098934 194.983
0.00192176 210.942
0.00291461 221.457
0.00394491 229.297
0.00481317 234.449
0.00594435 239.963
0.00683536 243.625
0.00791436 247.507
0.00888334 250.645
0.00993294 253.724
0.01909818 275.105
0.02913296 293.921
0.03842946 310.312
0.05082888 325.711
0.0573561 331.611
0.06982171 340.196
0.0802729 345.455
0.09059161 349.261
0.100872 352.216
0.145608 360.647
0.204339 367.217
0.256823 371.572
0.307448 375.18
0.355312 378.274
0.400438 380.993
0.450467 383.837
0.500563 386.595
0.550629 389.326
0.600467 392.136
0.650694 395.114
0.70078 398.4
0.749541 402.012
0.799036 406.486
0.809765 407.799
0.820898 409.045
0.830183 410.199
0.840518 411.533
0.850135 412.867
0.860012 414.365
0.870324 416.064
0.880063 417.867
0.890037 419.924
0.899697 422.216
0.910225 425.041
0.920572 428.25
0.9297318 431.883
0.939226 436.345
0.948783 442.354
0.959005 450.963
0.968528 463.104
0.977413 482.262
0.986178 513.238
0.992911 555.957