File: example/aif/UiO-66.aif
data_457d81e80dfdb96454312d09e6e7c665
_audit_aif_version 1.0
_audit_creation_method pyGAPS
_exptl_adsorptive 'nitrogen'
_exptl_temperature 77.0
_sample_material_id 'UiO-66'
_units_temperature 'K'
_units_pressure relative
_units_loading 'cm3/g'
_pygaps_pressure_mode 'relative'
_pygaps_pressure_unit 'None'
_pygaps_material_basis 'mass'
_pygaps_material_unit 'g'
_pygaps_loading_basis 'volume_gas'
_pygaps_loading_unit 'cm3'
_pygaps_temperature_unit 'K'

loop_
_adsorp_pressure
_adsorp_amount
1.2e-07 2.51421
2.5e-07 5.03725
3.5e-07 7.55824
5.5e-07 10.0859
7.6e-07 12.5973
1e-06 15.1046
1.22e-06 17.6388
1.47e-06 20.1634
1.97e-06 22.6913
2.84e-06 25.2215
3.85e-06 27.7319
5.17e-06 30.2541
6.88e-06 32.7757
8.83e-06 35.2992
1.14e-05 37.8351
1.44e-05 40.3645
1.78e-05 42.8806
2.15e-05 45.4115
2.54e-05 47.9454
2.91e-05 50.4589
3.3e-05 52.9952
3.67e-05 55.5098
4.04e-05 58.0454
4.4e-05 60.5875
4.76e-05 63.1276
5.12e-05 65.6682
5.48e-05 68.203
5.86e-05 70.7494
6.25e-05 73.2719
6.65e-05 75.7998
7.07e-05 78.3309
7.53e-05 80.8654
7.99e-05 83.3858
8.49e-05 85.9259
9.02e-05 88.4503
9.59e-05 90.9802
0.00010187 93.5077
0.00010843 96.0294
0.00011567 98.5676
0.00012392 101.098
0.00013253 103.644
0.00014208 106.172
0.00015222 108.699
0.00016353 111.219
0.00017505 113.744
0.0001884 116.274
0.0002031 118.799
0.00021953 121.325
0.00023727 123.848
0.00025686 126.378
0.00027838 128.905
0.00030212 131.428
0.00032834 133.966
0.00035746 136.488
0.00038942 139.008
0.00042504 141.532
0.00046396 144.039
0.00050749 146.548
0.00055577 149.06
0.00060942 151.57
0.00066854 154.061
0.00073372 156.534
0.00080532 158.995
0.0008836 161.444
0.00096956 163.872
0.00118028 168.6
0.00136992 172.5
0.0016599 177.7
0.00198387 182.643
0.00248123 188.8
0.0029778 193.956
0.00390028 202.086
0.0049016 209.48
0.00574858 214.955
0.0068152 220.954
0.00793226 226.471
0.00890856 230.793
0.00992481 234.943
0.01221611 242.0
0.01534447 250.3
0.02065701 260.212
0.029154 267.667
0.04303833 274.492
0.05607993 278.478
0.06013303 279.479
0.07031019 281.616
0.08044432 283.398
0.090171 284.871
0.100546 286.245
0.110564 287.446
0.1206022 288.518
0.130586 289.501
0.140095 290.39
0.150375 291.264
0.160508 292.051
0.170668 292.805
0.179966 293.487
0.190646 294.209
0.2003016 294.826
0.210335 295.439
0.220488 296.031
0.230573 296.586
0.240847 297.154
0.250568 297.665
0.260795 298.182
0.269581 298.636
0.280302 299.134
0.290696 299.612
0.300169 300
0.319237 300.844
0.340946 301.743
0.360937 302.537
0.380701 303.296
0.401084 304.066
0.421098 304.795
0.440715 305.508
0.460879 306.227
0.479423 306.926
0.500683 307.676
0.519295 308.373
0.5409888 309.113
0.559147 309.806
0.580858 310.577
0.600769 311.301
0.620649 312.02
0.640945 312.783
0.660587 313.537
0.680476 314.357
0.699493 315.23
0.71941 316.191
0.739506 317.191
0.759643 318.301
0.779643 319.48
0.799645 320.762
0.809048 321.467
0.820769 322.313
0.829733 323.057
0.839253 323.915
0.850506 324.914
0.860631 325.976
0.869346 326.946
0.880763 328.291
0.889853 329.5
0.900879 331.125
0.909389 332.582
0.919316 334.498
0.929206 336.777
0.939179 339.622
0.94913 343.327
0.986264 404.226
0.989723 439.351
0.9922017 501.973