File: example/aif/ZIF-8.aif
data_4c1b19fca8d6f499f7de9414b868d369
_audit_aif_version 1.0
_audit_creation_method pyGAPS
_exptl_adsorptive 'nitrogen'
_exptl_temperature 77.0
_sample_material_id 'ZIF-8'
_units_temperature 'K'
_units_pressure relative
_units_loading 'cm3/g'
_pygaps_pressure_mode 'relative'
_pygaps_pressure_unit 'None'
_pygaps_material_basis 'mass'
_pygaps_material_unit 'g'
_pygaps_loading_basis 'volume_gas'
_pygaps_loading_unit 'cm3'
_pygaps_temperature_unit 'K'

loop_
_adsorp_pressure
_adsorp_amount
4.2e-05 20.349
9.97e-05 40.698
0.00014812 60.914
0.00018851 81.263
0.00022428 101.612
0.00025984 122.094
0.00029995 142.31
0.00034906 162.26
0.00041793 183.54
0.00052108 203.49
0.00068477 223.44
0.00094986 243.39
0.00142272 263.34
0.00193056 275.31
0.00293669 288.61
0.0038711 295.26
0.00494507 301.91
0.00573077 305.9
0.00669891 312.55
0.00805449 323.19
0.00889211 328.51
0.00978126 332.5
0.02074716 356.44
0.02911093 364.42
0.03816369 400.33
0.04836001 413.63
0.0637743 420.28
0.06977686 421.61
0.08004303 424.27
0.09008362 425.6
0.10043 428.26
0.145027 433.58
0.20271 438.9
0.25486 442.89
0.305344 446.88
0.354387 449.54
0.3992699 452.2
0.449413 454.86
0.499422 457.52
0.549131 460.18
0.599553 462.84
0.648966 465.5
0.699056 468.16
0.748964 470.82
0.7992439 474.81
0.809236 476.14
0.819317 476.14
0.8292668 477.47
0.839404 478.8
0.850175 480.13
0.859576 481.46
0.86908 482.79
0.879065 484.12
0.889537 485.45
0.899628 488.11
0.909863 489.44
0.919855 492.1
0.929147 494.76
0.939056 498.75
0.948885 502.74
0.959088 509.39
0.969052 517.37
0.978076 529.34
0.986984 549.29
0.994456 585.2